* Sea-Bird SBE19Plus Data File:
* FileName = c:\velocity\CATFILES\\2013_192_124923.HEX
* Software Version 12.3(r3782)
* Temperature SN = 4677
* Conductivity SN = 4677
* System UpLoad Time = Jul 11 2013 13:01:09
* DS
* SeacatPlus V 1.6b  SERIAL NO. 4677    11 Jul 2013  13:00:45
* vbatt = 12.5, vlith =  8.6, ioper =  60.7 ma, ipump =  37.5 ma,
* status = not logging
* number of scans to average = 1
* samples = 2879, free = 759721, casts = 2
* mode = profile, minimum cond freq = 3258, pump delay = 40 sec
* autorun = no, ignore magnetic switch = no
* battery type = alkaline, battery cutoff =  7.3 volts
* pressure sensor = strain gauge, range = 508.0
* SBE 38 = no, Gas Tension Device = no
* Ext Volt 0 = no, Ext Volt 1 = no, Ext Volt 2 = no, Ext Volt 3 = no
* echo commands = yes
* output format = raw HEX
* S>* DCal
* SeacatPlus V 1.6b  SERIAL NO. 4677    11 Jul 2013  13:01:13
* temperature:  18-apr-13
*     TA0 = 1.159581e-03
*     TA1 = 2.746309e-04
*     TA2 = -1.025604e-06
*     TA3 = 1.822981e-07
*     TOFFSET = 0.000000e+00
* conductivity:  18-apr-13
*     G = -1.053039e+00
*     H = 1.381198e-01
*     I = 1.137194e-04
*     J = 5.027832e-06
*     CF0 = 2.757577e+03
*     CPCOR = -9.570000e-08
*     CTCOR = 3.250000e-06
*     CSLOPE = 1.000000e+00
* pressure S/N = 6135, range = 508 psia:  17-apr-13
*     PA0 = 6.131953e-02
*     PA1 = 1.551817e-03
*     PA2 = 8.084792e-12
*     PTCA0 = 5.150465e+05
*     PTCA1 = 4.529928e+00
*     PTCA2 = -1.305966e-01
*     PTCB0 = 2.429287e+01
*     PTCB1 = -6.250001e-04
*     PTCB2 = 0.000000e+00
*     PTEMPA0 = -7.863148e+01
*     PTEMPA1 = 4.752934e+01
*     PTEMPA2 = -1.951711e-01
*     POFFSET = 0.000000e+00
* volt 0: offset = -4.611895e-02, slope = 1.251580e+00
* volt 1: offset = -4.635474e-02, slope = 1.250966e+00
* volt 2: offset = -4.601158e-02, slope = 1.250740e+00
* volt 3: offset = -4.587579e-02, slope = 1.251470e+00
*     EXTFREQSF = 1.000002e+00
* S>* cast   2 11 Jul 2013 12:49:23 samples 1237 to 2879, avg = 1, stop = mag switch
# nquan = 5
# nvalues = 1520                                  
# units = specified
# name 0 = depSM: Depth [salt water, m]
# name 1 = svCM: Sound Velocity [Chen-Millero, m/s]
# name 2 = sal00: Salinity, Practical [PSU]
# name 3 = tv290C: Temperature [ITS-90, deg C]
# name 4 = flag:  0.000e+00
# span 0 =     -0.033,     16.088                 
# span 1 =    1497.34,    1515.58                 
# span 2 =     0.1570,    12.5749                 
# span 3 =    25.0699,    27.1823                 
# span 4 = 0.0000e+00, 0.0000e+00                 
# interval = seconds: 0.25
# start_time = Jul 11 2013 13:01:09
# bad_flag = -9.990e-29
# <?xml version="1.0" encoding="UTF-8"?>
# <Sensors count="3" >
#   <sensor Channel="1" >
#     <!-- Count, Temperature -->
#     <TemperatureSensor SensorID="58" >
#       <SerialNumber>4677</SerialNumber>
#       <CalibrationDate>18-Apr-13</CalibrationDate>
#       <A0>1.15958100e-003</A0>
#       <A1>2.74630900e-004</A1>
#       <A2>-1.02560400e-006</A2>
#       <A3>1.82298100e-007</A3>
#       <Slope>1.00000000</Slope>
#       <Offset>0.0000</Offset>
#     </TemperatureSensor>
#   </sensor>
#   <sensor Channel="2" >
#     <!-- Frequency 0, Conductivity -->
#     <ConductivitySensor SensorID="3" >
#       <SerialNumber>4677</SerialNumber>
#       <CalibrationDate>18-Apr-13</CalibrationDate>
#       <UseG_J>1</UseG_J>
#       <!-- Cell const and series R are applicable only for wide range sensors. -->
#       <SeriesR>0.0000</SeriesR>
#       <CellConst>2000.0000</CellConst>
#       <Coefficients equation="0" >
#         <A>0.00000000e+000</A>
#         <B>0.00000000e+000</B>
#         <C>0.00000000e+000</C>
#         <D>0.00000000e+000</D>
#         <M>0.0</M>
#         <CPcor>-9.57000000e-008</CPcor>
#       </Coefficients>
#       <Coefficients equation="1" >
#         <G>-1.05303929e+000</G>
#         <H>1.38119774e-001</H>
#         <I>1.13719419e-004</I>
#         <J>5.02783107e-006</J>
#         <CPcor>-9.57000000e-008</CPcor>
#         <CTcor>3.2500e-006</CTcor>
#       </Coefficients>
#       <Slope>1.00000000</Slope>
#       <Offset>0.00000</Offset>
#     </ConductivitySensor>
#   </sensor>
#   <sensor Channel="3" >
#     <!-- Count, Pressure, Strain Gauge -->
#     <PressureSensor SensorID="46" >
#       <SerialNumber>4677</SerialNumber>
#       <CalibrationDate>17-Apr-13</CalibrationDate>
#       <PA0>6.13195300e-002</PA0>
#       <PA1>1.55181700e-003</PA1>
#       <PA2>8.08479100e-012</PA2>
#       <PTEMPA0>-7.86314800e+001</PTEMPA0>
#       <PTEMPA1>4.75293400e+001</PTEMPA1>
#       <PTEMPA2>-1.95171100e-001</PTEMPA2>
#       <PTCA0>5.15046500e+005</PTCA0>
#       <PTCA1>4.52992800e+000</PTCA1>
#       <PTCA2>-1.30596600e-001</PTCA2>
#       <PTCB0>2.42928700e+001</PTCB0>
#       <PTCB1>-6.25000000e-004</PTCB1>
#       <PTCB2>0.00000000e+000</PTCB2>
#       <Offset>0.000000</Offset>
#     </PressureSensor>
#   </sensor>
# </Sensors>
# datcnv_date = Jul 11 2013 13:14:45, 7.20c
# datcnv_in = C:\velocity\CATFILES\2013_192_124923.HEX C:\velocity\SVFILES\4677.con
# datcnv_skipover = 0
# file_type = ascii
*END*
     -0.021    1498.33     0.4061    25.4410  0.000e+00
     -0.021    1498.32     0.4012    25.4407  0.000e+00
     -0.025    1498.33     0.4107    25.4400  0.000e+00
     -0.027    1498.40     0.4688    25.4393  0.000e+00
     -0.023    1498.37     0.4448    25.4395  0.000e+00
     -0.019    1498.31     0.3922    25.4397  0.000e+00
     -0.018    1498.28     0.3646    25.4394  0.000e+00
     -0.015    1498.27     0.3542    25.4393  0.000e+00
     -0.015    1498.26     0.3499    25.4394  0.000e+00
     -0.016    1498.26     0.3467    25.4389  0.000e+00
     -0.018    1498.25     0.3425    25.4378  0.000e+00
     -0.016    1498.24     0.3365    25.4375  0.000e+00
     -0.017    1498.23     0.3300    25.4369  0.000e+00
     -0.015    1498.22     0.3226    25.4360  0.000e+00
     -0.015    1498.21     0.3146    25.4348  0.000e+00
     -0.017    1498.20     0.3069    25.4335  0.000e+00
     -0.016    1498.19     0.2993    25.4315  0.000e+00
     -0.016    1498.17     0.2919    25.4295  0.000e+00
     -0.014    1498.16     0.2852    25.4279  0.000e+00
     -0.017    1498.15     0.2788    25.4257  0.000e+00
     -0.017    1498.13     0.2712    25.4239  0.000e+00
     -0.017    1498.12     0.2636    25.4218  0.000e+00
     -0.016    1498.11     0.2565    25.4200  0.000e+00
     -0.016    1498.10     0.2502    25.4184  0.000e+00
     -0.017    1498.09     0.2441    25.4168  0.000e+00
     -0.017    1498.07     0.2376    25.4151  0.000e+00
     -0.016    1498.06     0.2311    25.4134  0.000e+00
     -0.014    1498.05     0.2248    25.4121  0.000e+00
     -0.017    1498.04     0.2189    25.4109  0.000e+00
     -0.017    1498.03     0.2134    25.4093  0.000e+00
     -0.017    1498.02     0.2085    25.4083  0.000e+00
     -0.018    1498.02     0.2042    25.4071  0.000e+00
     -0.016    1498.01     0.2005    25.4059  0.000e+00
     -0.017    1498.00     0.1972    25.4050  0.000e+00
     -0.016    1498.00     0.1943    25.4037  0.000e+00
     -0.017    1497.99     0.1922    25.4029  0.000e+00
     -0.017    1497.99     0.1907    25.4016  0.000e+00
     -0.015    1497.98     0.1896    25.4006  0.000e+00
     -0.016    1497.98     0.1887    25.3996  0.000e+00
     -0.017    1497.98     0.1883    25.3991  0.000e+00
     -0.017    1497.97     0.1878    25.3983  0.000e+00
     -0.016    1497.97     0.1875    25.3974  0.000e+00
     -0.016    1497.97     0.1869    25.3967  0.000e+00
     -0.016    1497.97     0.1859    25.3960  0.000e+00
     -0.015    1497.96     0.1847    25.3950  0.000e+00
     -0.017    1497.96     0.1834    25.3943  0.000e+00
     -0.014    1497.96     0.1821    25.3938  0.000e+00
     -0.016    1497.95     0.1808    25.3928  0.000e+00
     -0.018    1497.95     0.1792    25.3923  0.000e+00
     -0.015    1497.94     0.1776    25.3911  0.000e+00
     -0.017    1497.94     0.1760    25.3905  0.000e+00
     -0.017    1497.94     0.1744    25.3900  0.000e+00
     -0.016    1497.93     0.1728    25.3894  0.000e+00
     -0.016    1497.93     0.1713    25.3883  0.000e+00
     -0.019    1497.93     0.1700    25.3878  0.000e+00
     -0.017    1497.92     0.1684    25.3871  0.000e+00
     -0.017    1497.92     0.1672    25.3871  0.000e+00
     -0.016    1497.92     0.1660    25.3866  0.000e+00
     -0.016    1497.92     0.1650    25.3862  0.000e+00
     -0.017    1497.91     0.1642    25.3852  0.000e+00
     -0.018    1497.91     0.1635    25.3847  0.000e+00
     -0.016    1497.91     0.1628    25.3843  0.000e+00
     -0.014    1497.91     0.1622    25.3834  0.000e+00
     -0.016    1497.90     0.1617    25.3832  0.000e+00
     -0.015    1497.90     0.1611    25.3830  0.000e+00
     -0.016    1497.90     0.1607    25.3827  0.000e+00
     -0.016    1497.90     0.1603    25.3821  0.000e+00
     -0.014    1497.90     0.1601    25.3817  0.000e+00
     -0.017    1497.90     0.1598    25.3813  0.000e+00
     -0.017    1497.90     0.1595    25.3807  0.000e+00
     -0.017    1497.90     0.1591    25.3808  0.000e+00
     -0.018    1497.89     0.1588    25.3805  0.000e+00
     -0.016    1497.89     0.1586    25.3806  0.000e+00
     -0.017    1497.89     0.1584    25.3802  0.000e+00
     -0.016    1497.89     0.1583    25.3800  0.000e+00
     -0.016    1497.89     0.1582    25.3797  0.000e+00
     -0.015    1497.89     0.1581    25.3794  0.000e+00
     -0.018    1497.89     0.1581    25.3792  0.000e+00
     -0.017    1497.89     0.1582    25.3784  0.000e+00
     -0.018    1497.89     0.1582    25.3780  0.000e+00
     -0.015    1497.89     0.1581    25.3778  0.000e+00
     -0.017    1497.89     0.1578    25.3777  0.000e+00
     -0.017    1497.88     0.1575    25.3775  0.000e+00
     -0.019    1497.88     0.1573    25.3771  0.000e+00
     -0.016    1497.88     0.1571    25.3770  0.000e+00
     -0.016    1497.88     0.1570    25.3765  0.000e+00
     -0.017    1497.88     0.1571    25.3762  0.000e+00
     -0.017    1497.88     0.1573    25.3758  0.000e+00
     -0.016    1497.88     0.1573    25.3756  0.000e+00
     -0.016    1497.88     0.1574    25.3752  0.000e+00
     -0.015    1497.88     0.1575    25.3751  0.000e+00
     -0.015    1497.88     0.1576    25.3744  0.000e+00
     -0.017    1497.88     0.1578    25.3740  0.000e+00
     -0.016    1497.87     0.1580    25.3734  0.000e+00
     -0.016    1497.87     0.1582    25.3726  0.000e+00
     -0.016    1497.87     0.1583    25.3720  0.000e+00
     -0.016    1497.87     0.1584    25.3719  0.000e+00
     -0.017    1497.87     0.1586    25.3713  0.000e+00
     -0.019    1497.87     0.1589    25.3707  0.000e+00
     -0.017    1497.87     0.1593    25.3704  0.000e+00
     -0.016    1497.87     0.1596    25.3703  0.000e+00
     -0.017    1497.87     0.1600    25.3702  0.000e+00
     -0.018    1497.87     0.1604    25.3698  0.000e+00
     -0.018    1497.87     0.1608    25.3697  0.000e+00
     -0.017    1497.87     0.1613    25.3688  0.000e+00
     -0.017    1497.87     0.1620    25.3688  0.000e+00
     -0.016    1497.87     0.1626    25.3681  0.000e+00
     -0.018    1497.86     0.1631    25.3674  0.000e+00
     -0.018    1497.86     0.1636    25.3669  0.000e+00
     -0.016    1497.86     0.1640    25.3663  0.000e+00
     -0.017    1497.86     0.1646    25.3655  0.000e+00
     -0.017    1497.86     0.1654    25.3651  0.000e+00
     -0.018    1497.86     0.1663    25.3647  0.000e+00
     -0.018    1497.86     0.1670    25.3642  0.000e+00
     -0.017    1497.86     0.1676    25.3638  0.000e+00
     -0.017    1497.86     0.1681    25.3635  0.000e+00
     -0.018    1497.86     0.1688    25.3634  0.000e+00
     -0.017    1497.86     0.1696    25.3627  0.000e+00
     -0.017    1497.86     0.1705    25.3623  0.000e+00
     -0.017    1497.86     0.1714    25.3621  0.000e+00
     -0.017    1497.86     0.1722    25.3618  0.000e+00
     -0.017    1497.86     0.1728    25.3616  0.000e+00
     -0.019    1497.86     0.1733    25.3610  0.000e+00
     -0.017    1497.86     0.1740    25.3609  0.000e+00
     -0.016    1497.86     0.1749    25.3603  0.000e+00
     -0.017    1497.86     0.1759    25.3598  0.000e+00
     -0.018    1497.86     0.1769    25.3595  0.000e+00
     -0.018    1497.86     0.1778    25.3589  0.000e+00
     -0.017    1497.86     0.1786    25.3579  0.000e+00
     -0.018    1497.85     0.1794    25.3569  0.000e+00
     -0.018    1497.85     0.1803    25.3561  0.000e+00
     -0.018    1497.85     0.1813    25.3557  0.000e+00
     -0.017    1497.85     0.1822    25.3550  0.000e+00
     -0.017    1497.85     0.1833    25.3544  0.000e+00
     -0.018    1497.85     0.1843    25.3539  0.000e+00
     -0.018    1497.85     0.1853    25.3538  0.000e+00
     -0.015    1497.85     0.1861    25.3535  0.000e+00
     -0.018    1497.85     0.1869    25.3527  0.000e+00
     -0.018    1497.85     0.1880    25.3523  0.000e+00
     -0.017    1497.85     0.1888    25.3516  0.000e+00
     -0.019    1497.85     0.1897    25.3513  0.000e+00
     -0.015    1497.85     0.1906    25.3508  0.000e+00
     -0.019    1497.85     0.1914    25.3503  0.000e+00
     -0.019    1497.85     0.1923    25.3497  0.000e+00
     -0.018    1497.85     0.1932    25.3493  0.000e+00
     -0.018    1497.85     0.1938    25.3490  0.000e+00
     -0.018    1497.85     0.1946    25.3482  0.000e+00
     -0.017    1497.85     0.1952    25.3476  0.000e+00
     -0.017    1497.85     0.1959    25.3475  0.000e+00
     -0.018    1497.85     0.1965    25.3470  0.000e+00
     -0.019    1497.85     0.1972    25.3465  0.000e+00
     -0.019    1497.85     0.1979    25.3460  0.000e+00
     -0.019    1497.85     0.1986    25.3454  0.000e+00
     -0.020    1497.85     0.1994    25.3454  0.000e+00
     -0.017    1497.85     0.2000    25.3450  0.000e+00
     -0.015    1497.85     0.2006    25.3444  0.000e+00
     -0.019    1497.84     0.2012    25.3438  0.000e+00
     -0.019    1497.84     0.2018    25.3437  0.000e+00
     -0.018    1497.84     0.2023    25.3433  0.000e+00
     -0.018    1497.84     0.2027    25.3431  0.000e+00
     -0.015    1497.84     0.2031    25.3421  0.000e+00
     -0.015    1497.84     0.2034    25.3417  0.000e+00
     -0.018    1497.84     0.2039    25.3411  0.000e+00
     -0.019    1497.84     0.2045    25.3404  0.000e+00
     -0.020    1497.84     0.2051    25.3397  0.000e+00
     -0.016    1497.84     0.2056    25.3393  0.000e+00
     -0.018    1497.84     0.2060    25.3390  0.000e+00
     -0.018    1497.84     0.2064    25.3383  0.000e+00
     -0.016    1497.83     0.2067    25.3375  0.000e+00
     -0.018    1497.83     0.2072    25.3374  0.000e+00
     -0.019    1497.83     0.2077    25.3366  0.000e+00
     -0.018    1497.83     0.2088    25.3362  0.000e+00
     -0.015    1497.83     0.2112    25.3354  0.000e+00
     -0.016    1497.84     0.2138    25.3348  0.000e+00
     -0.018    1497.84     0.2156    25.3348  0.000e+00
     -0.016    1497.84     0.2166    25.3342  0.000e+00
     -0.019    1497.84     0.2175    25.3337  0.000e+00
     -0.019    1497.83     0.2181    25.3329  0.000e+00
     -0.018    1497.83     0.2188    25.3320  0.000e+00
     -0.018    1497.83     0.2194    25.3316  0.000e+00
     -0.018    1497.83     0.2198    25.3310  0.000e+00
     -0.016    1497.83     0.2202    25.3302  0.000e+00
     -0.018    1497.83     0.2206    25.3295  0.000e+00
     -0.018    1497.83     0.2211    25.3288  0.000e+00
     -0.016    1497.83     0.2218    25.3280  0.000e+00
     -0.016    1497.82     0.2223    25.3272  0.000e+00
     -0.019    1497.82     0.2225    25.3268  0.000e+00
     -0.016    1497.82     0.2225    25.3261  0.000e+00
     -0.018    1497.82     0.2224    25.3251  0.000e+00
     -0.018    1497.82     0.2225    25.3245  0.000e+00
     -0.016    1497.82     0.2228    25.3237  0.000e+00
     -0.018    1497.81     0.2234    25.3232  0.000e+00
     -0.018    1497.81     0.2235    25.3223  0.000e+00
     -0.016    1497.81     0.2238    25.3215  0.000e+00
     -0.018    1497.81     0.2239    25.3207  0.000e+00
     -0.018    1497.81     0.2241    25.3201  0.000e+00
     -0.020    1497.81     0.2243    25.3196  0.000e+00
     -0.017    1497.80     0.2245    25.3189  0.000e+00
     -0.016    1497.80     0.2249    25.3182  0.000e+00
     -0.016    1497.80     0.2252    25.3178  0.000e+00
     -0.019    1497.80     0.2254    25.3174  0.000e+00
     -0.017    1497.80     0.2254    25.3168  0.000e+00
     -0.016    1497.80     0.2256    25.3163  0.000e+00
     -0.019    1497.80     0.2258    25.3151  0.000e+00
     -0.018    1497.79     0.2263    25.3143  0.000e+00
     -0.017    1497.79     0.2268    25.3135  0.000e+00
     -0.016    1497.79     0.2271    25.3129  0.000e+00
     -0.017    1497.79     0.2274    25.3122  0.000e+00
     -0.017    1497.79     0.2276    25.3113  0.000e+00
     -0.020    1497.79     0.2280    25.3106  0.000e+00
     -0.019    1497.78     0.2284    25.3066  0.000e+00
     -0.015    1497.77     0.2288    25.3028  0.000e+00
     -0.020    1497.76     0.2292    25.3015  0.000e+00
     -0.019    1497.76     0.2296    25.3007  0.000e+00
     -0.017    1497.76     0.2299    25.3003  0.000e+00
     -0.016    1497.76     0.2302    25.2998  0.000e+00
     -0.017    1497.76     0.2306    25.2993  0.000e+00
     -0.016    1497.76     0.2311    25.2988  0.000e+00
     -0.019    1497.76     0.2316    25.2981  0.000e+00
     -0.020    1497.76     0.2319    25.2978  0.000e+00
     -0.016    1497.76     0.2322    25.2975  0.000e+00
     -0.016    1497.76     0.2326    25.2970  0.000e+00
     -0.016    1497.75     0.2329    25.2961  0.000e+00
     -0.019    1497.75     0.2333    25.2952  0.000e+00
     -0.020    1497.75     0.2337    25.2941  0.000e+00
     -0.017    1497.75     0.2342    25.2935  0.000e+00
     -0.017    1497.75     0.2346    25.2929  0.000e+00
     -0.017    1497.75     0.2350    25.2923  0.000e+00
     -0.019    1497.74     0.2354    25.2916  0.000e+00
     -0.019    1497.74     0.2358    25.2909  0.000e+00
     -0.018    1497.74     0.2362    25.2903  0.000e+00
     -0.017    1497.74     0.2365    25.2899  0.000e+00
     -0.018    1497.74     0.2368    25.2891  0.000e+00
     -0.017    1497.74     0.2371    25.2888  0.000e+00
     -0.017    1497.74     0.2375    25.2874  0.000e+00
     -0.016    1497.73     0.2381    25.2862  0.000e+00
     -0.017    1497.73     0.2388    25.2856  0.000e+00
     -0.016    1497.73     0.2393    25.2849  0.000e+00
     -0.016    1497.73     0.2398    25.2840  0.000e+00
     -0.020    1497.73     0.2402    25.2833  0.000e+00
     -0.018    1497.73     0.2407    25.2828  0.000e+00
     -0.017    1497.73     0.2411    25.2822  0.000e+00
     -0.017    1497.73     0.2417    25.2816  0.000e+00
     -0.016    1497.72     0.2421    25.2810  0.000e+00
     -0.021    1497.72     0.2426    25.2808  0.000e+00
     -0.016    1497.72     0.2430    25.2801  0.000e+00
     -0.018    1497.72     0.2434    25.2791  0.000e+00
     -0.017    1497.72     0.2439    25.2783  0.000e+00
     -0.021    1497.72     0.2445    25.2775  0.000e+00
     -0.017    1497.72     0.2450    25.2765  0.000e+00
     -0.018    1497.71     0.2456    25.2756  0.000e+00
     -0.018    1497.71     0.2458    25.2749  0.000e+00
     -0.018    1497.71     0.2460    25.2743  0.000e+00
     -0.020    1497.71     0.2465    25.2733  0.000e+00
     -0.018    1497.71     0.2471    25.2727  0.000e+00
     -0.018    1497.71     0.2476    25.2720  0.000e+00
     -0.018    1497.71     0.2481    25.2712  0.000e+00
     -0.017    1497.70     0.2487    25.2700  0.000e+00
